##TITLE= 171020_0min
##JCAMP-DX= 4.24
##DATA TYPE= UV/VIS SPECTRUM
##ORIGIN= VISIONlite Scan Version 5.0
##OWNER= Kemi1\Kemi01
##DATE= 17-10-20
##TIME= 13:06:37
##SPECTROMETER/DATA SYSTEM= GENESYS 10S UV-Vis
##SAMPLE DESCRIPTION= 
##DELTAX= 1
##XUNITS= NANOMETERS
##YUNITS= ABSORBANCE
$$COMMENT= RTUNITS 0-1
##XFACTOR= 1.0
##YFACTOR= 1
##FIRSTX= 200
##LASTX= 800
##NPOINTS= 601
##FIRSTY= 2.9574
##MAXY= 3.4934
##MINY= 0.0036
##XYDATA= (XY..XY)
200 2.9574
201 2.9923
202 3.0453
203 3.1061
204 3.1134
205 3.1263
206 3.1377
207 3.1169
208 3.1016
209 3.1041
210 3.1025
211 3.1089
212 3.1247
213 3.1278
214 3.1305
215 3.1345
216 3.1345
217 3.139
218 3.1413
219 3.1444
220 3.1352
221 3.1454
222 3.1604
223 3.17
224 3.1839
225 3.1652
226 3.1746
227 3.1942
228 3.2235
229 3.2268
230 3.2192
231 3.2058
232 3.1865
233 3.168
234 3.1646
235 3.1607
236 3.1589
237 3.1563
238 3.1419
239 3.1406
240 3.1345
241 3.1566
242 3.1691
243 3.1681
244 3.1564
245 3.133
246 3.1416
247 3.163
248 3.1623
249 3.1529
250 3.1322
251 3.1332
252 3.1473
253 3.1569
254 3.1389
255 3.148
256 3.1378
257 3.1609
258 3.1712
259 3.1954
260 3.2158
261 3.2125
262 3.1779
263 3.1636
264 3.1597
265 3.1421
266 3.1446
267 3.1392
268 3.126
269 3.1109
270 3.1188
271 3.1215
272 3.1351
273 3.1169
274 3.116
275 3.1138
276 3.1155
277 3.1235
278 3.1078
279 3.0966
280 3.1035
281 3.1017
282 3.1073
283 3.1136
284 3.1238
285 3.1501
286 3.1561
287 3.1788
288 3.1756
289 3.1718
290 3.1767
291 3.1786
292 3.1724
293 3.1927
294 3.2113
295 3.2421
296 3.2818
297 3.3305
298 3.37
299 3.3809
300 3.429
301 3.4551
302 3.4819
303 3.4934
304 3.4707
305 3.4541
306 3.4565
307 3.4492
308 3.4597
309 3.446
310 3.4115
311 3.3824
312 3.3449
313 3.3147
314 3.3026
315 3.2841
316 3.2287
317 3.1927
318 3.168
319 3.1476
320 3.1205
321 3.0882
322 3.0805
323 3.086
324 3.0809
325 3.0428
326 3.0188
327 3.0035
328 2.976
329 2.966
330 2.9549
331 2.9426
332 2.9449
333 2.9449
334 2.9322
335 2.9166
336 2.8997
337 2.8939
338 2.8921
339 2.8801
340 2.8696
341 2.8639
342 2.8657
343 2.8696
344 2.8768
345 2.8786
346 2.8715
347 2.8426
348 2.8123
349 2.8171
350 2.8204
351 2.8131
352 2.8103
353 2.8085
354 2.8071
355 2.7985
356 2.7851
357 2.7719
358 2.734
359 2.6543
360 2.5699
361 2.4514
362 2.3188
363 2.1497
364 1.9495
365 1.7647
366 1.6006
367 1.4403
368 1.2886
369 1.1438
370 1.0107
371 0.8973
372 0.7989
373 0.7035
374 0.6219
375 0.5547
376 0.4941
377 0.4459
378 0.4088
379 0.3724
380 0.3371
381 0.3084
382 0.2847
383 0.2637
384 0.2459
385 0.2306
386 0.2172
387 0.2057
388 0.1958
389 0.1875
390 0.1797
391 0.1724
392 0.167
393 0.1617
394 0.1566
395 0.153
396 0.149
397 0.1455
398 0.1425
399 0.1397
400 0.1374
401 0.1351
402 0.1332
403 0.1316
404 0.1298
405 0.1285
406 0.1275
407 0.1265
408 0.1253
409 0.1244
410 0.1234
411 0.1227
412 0.1223
413 0.1216
414 0.1212
415 0.1208
416 0.1202
417 0.1198
418 0.1194
419 0.1191
420 0.1188
421 0.1186
422 0.1183
423 0.1181
424 0.1178
425 0.1178
426 0.1176
427 0.1172
428 0.1171
429 0.1168
430 0.1164
431 0.1161
432 0.1157
433 0.1154
434 0.1153
435 0.1149
436 0.1149
437 0.1145
438 0.1143
439 0.114
440 0.1138
441 0.1137
442 0.1136
443 0.1134
444 0.1134
445 0.1131
446 0.1131
447 0.113
448 0.113
449 0.113
450 0.1131
451 0.1129
452 0.113
453 0.113
454 0.1131
455 0.1131
456 0.1132
457 0.1133
458 0.1133
459 0.1132
460 0.1135
461 0.1136
462 0.1137
463 0.1138
464 0.1142
465 0.1144
466 0.1148
467 0.115
468 0.1154
469 0.116
470 0.1164
471 0.1169
472 0.1175
473 0.1178
474 0.1184
475 0.1193
476 0.1194
477 0.1203
478 0.1206
479 0.1209
480 0.1218
481 0.1221
482 0.1228
483 0.123
484 0.1237
485 0.1238
486 0.1246
487 0.125
488 0.1257
489 0.1261
490 0.1262
491 0.1264
492 0.1268
493 0.1271
494 0.1273
495 0.1273
496 0.1271
497 0.1274
498 0.1274
499 0.1272
500 0.1268
501 0.1266
502 0.1266
503 0.1265
504 0.126
505 0.1255
506 0.1251
507 0.1247
508 0.1238
509 0.1236
510 0.1227
511 0.1218
512 0.1208
513 0.12
514 0.1191
515 0.1181
516 0.1173
517 0.1162
518 0.115
519 0.1139
520 0.1127
521 0.1116
522 0.1103
523 0.1091
524 0.1078
525 0.1064
526 0.105
527 0.1037
528 0.1025
529 0.1008
530 0.0996
531 0.0979
532 0.0963
533 0.0945
534 0.0932
535 0.0918
536 0.0901
537 0.0884
538 0.0865
539 0.0846
540 0.0828
541 0.0811
542 0.0797
543 0.078
544 0.0762
545 0.0742
546 0.0724
547 0.0702
548 0.0686
549 0.067
550 0.0648
551 0.0634
552 0.0616
553 0.0597
554 0.0581
555 0.0564
556 0.0548
557 0.0533
558 0.0513
559 0.0499
560 0.0486
561 0.0473
562 0.0453
563 0.0443
564 0.0427
565 0.0416
566 0.0404
567 0.0393
568 0.0382
569 0.0372
570 0.0361
571 0.0351
572 0.0341
573 0.0333
574 0.0326
575 0.0314
576 0.0311
577 0.0303
578 0.0291
579 0.0286
580 0.0277
581 0.0273
582 0.0267
583 0.026
584 0.0251
585 0.0244
586 0.0243
587 0.0235
588 0.0233
589 0.0228
590 0.0217
591 0.0216
592 0.0214
593 0.0207
594 0.0204
595 0.02
596 0.0201
597 0.0194
598 0.0187
599 0.0187
600 0.018
601 0.0178
602 0.0176
603 0.0169
604 0.0167
605 0.0165
606 0.0166
607 0.016
608 0.0155
609 0.0154
610 0.0152
611 0.0155
612 0.0152
613 0.0147
614 0.0145
615 0.0145
616 0.0136
617 0.0137
618 0.0133
619 0.0132
620 0.0133
621 0.0131
622 0.0127
623 0.0129
624 0.0126
625 0.0125
626 0.0123
627 0.012
628 0.0118
629 0.0117
630 0.0113
631 0.0114
632 0.0114
633 0.0109
634 0.0113
635 0.0107
636 0.0111
637 0.011
638 0.0105
639 0.0106
640 0.0104
641 0.0103
642 0.0103
643 0.01
644 0.0101
645 0.0104
646 0.0102
647 0.0099
648 0.0094
649 0.0095
650 0.0093
651 0.0096
652 0.0088
653 0.0088
654 0.0092
655 0.0091
656 0.0094
657 0.0089
658 0.009
659 0.0094
660 0.0091
661 0.0088
662 0.0089
663 0.0086
664 0.0083
665 0.0084
666 0.0085
667 0.0081
668 0.0084
669 0.008
670 0.0082
671 0.0079
672 0.0082
673 0.0078
674 0.0086
675 0.0082
676 0.008
677 0.0076
678 0.008
679 0.0078
680 0.0081
681 0.0082
682 0.0079
683 0.008
684 0.008
685 0.0076
686 0.0081
687 0.0077
688 0.0076
689 0.0072
690 0.0079
691 0.0078
692 0.0071
693 0.0074
694 0.0077
695 0.0072
696 0.0067
697 0.0073
698 0.0073
699 0.0071
700 0.0069
701 0.0071
702 0.0072
703 0.007
704 0.0074
705 0.007
706 0.0076
707 0.0064
708 0.0067
709 0.0065
710 0.0065
711 0.0066
712 0.0064
713 0.0067
714 0.0059
715 0.0065
716 0.0062
717 0.0063
718 0.0065
719 0.0058
720 0.0059
721 0.006
722 0.0065
723 0.0063
724 0.0065
725 0.0066
726 0.0055
727 0.0058
728 0.0058
729 0.0062
730 0.0061
731 0.0064
732 0.006
733 0.0055
734 0.0062
735 0.0059
736 0.006
737 0.0071
738 0.0055
739 0.006
740 0.0057
741 0.0058
742 0.0057
743 0.0069
744 0.0056
745 0.0062
746 0.0058
747 0.0058
748 0.0056
749 0.0053
750 0.0053
751 0.0053
752 0.0055
753 0.0054
754 0.0053
755 0.0051
756 0.0054
757 0.0048
758 0.0056
759 0.0053
760 0.0047
761 0.0051
762 0.0049
763 0.0048
764 0.0052
765 0.0047
766 0.0047
767 0.0053
768 0.0048
769 0.0056
770 0.0048
771 0.0048
772 0.0052
773 0.0047
774 0.0047
775 0.0042
776 0.0037
777 0.005
778 0.0046
779 0.0049
780 0.0046
781 0.0051
782 0.0049
783 0.0036
784 0.004
785 0.004
786 0.0051
787 0.0051
788 0.0049
789 0.0041
790 0.0044
791 0.0049
792 0.0046
793 0.0053
794 0.0038
795 0.0041
796 0.0036
797 0.0042
798 0.0038
799 0.0041
800 0.0051
##END=
